PhotonEnergy(eV) Transmission
    0.0000      0.00000
    10.000      0.00000    
    25.000      0.00000    
    40.000      0.00000    
    55.000      0.00000    
    70.000      0.00000    
    85.000      0.00000    
    100.00      0.00000    
    115.00      0.00000    
    130.00      0.00000    
    145.00      0.00000    
    160.00      0.00000    
    175.00      0.00000    
    190.00      0.00000    
    205.00      0.00000    
    220.00      0.00000    
    235.00      0.00000    
    250.00      0.00000    
    265.00      0.00000    
    280.00      0.00000    
    295.00      0.00000    
    310.00      0.00000    
    325.00      0.00000    
    340.00      0.00000    
    355.00      0.00000    
    370.00      0.00000    
    385.00      0.00000    
    400.00      0.00000    
    415.00      0.00000    
    430.00      0.00000    
    445.00      0.00000    
    460.00      0.00000    
    475.00      0.00000    
    490.00      0.00000    
    505.00      0.00000    
    520.00      0.00000    
    535.00      0.00000    
    550.00      0.00000    
    565.00      0.00000    
    580.00      0.00000    
    595.00      0.00000    
    610.00      0.00000    
    625.00      0.00000    
    640.00      0.00000    
    655.00      0.00000    
    670.00      0.00000    
    685.00      0.00000    
    700.00      0.00000    
    715.00      0.00000    
    730.00      0.00000    
    745.00      0.00000    
    760.00      0.00000    
    775.00      0.00000    
    790.00      0.00000    
    805.00      0.00000    
    820.00      0.00000    
    835.00      0.00000    
    850.00      0.00000    
    865.00      0.00000    
    880.00      0.00000    
    895.00      0.14013E-44
    910.00      0.19338E-42
    925.00      0.18944E-40
    940.00      0.13987E-38
    955.00      0.79559E-37
    970.00      0.35552E-35
    985.00      0.12712E-33
    1000.0      0.37037E-32
    1015.0      0.89289E-31
    1030.0      0.18016E-29
    1045.0      0.30746E-28
    1060.0      0.44927E-27
    1075.0      0.56796E-26
    1090.0      0.60374E-25
    1105.0      0.51418E-24
    1120.0      0.36528E-23
    1135.0      0.23679E-22
    1150.0      0.14062E-21
    1165.0      0.76866E-21
    1180.0      0.38870E-20
    1195.0      0.18274E-19
    1210.0      0.80389E-19
    1225.0      0.33160E-18
    1240.0      0.12862E-17
    1255.0      0.47050E-17
    1270.0      0.16276E-16
    1285.0      0.53433E-16
    1300.0      0.16729E-15
    1315.0      0.50181E-15
    1330.0      0.14393E-14
    1345.0      0.39571E-14
    1360.0      0.10449E-13
    1375.0      0.26538E-13
    1390.0      0.65065E-13
    1405.0      0.15422E-12
    1420.0      0.35404E-12
    1435.0      0.78790E-12
    1450.0      0.17020E-11
    1465.0      0.35719E-11
    1480.0      0.72944E-11
    1495.0      0.14513E-10
    1510.0      0.28667E-10
    1525.0      0.55345E-10
    1540.0      0.10442E-09
    1555.0      0.19267E-09
    1570.0      0.34791E-09
    1585.0      0.61500E-09
    1600.0      0.10656E-08
    1615.0      0.18114E-08
    1630.0      0.30234E-08
    1645.0      0.49592E-08
    1660.0      0.79980E-08
    1675.0      0.12693E-07
    1690.0      0.19835E-07
    1705.0      0.30542E-07
    1720.0      0.46366E-07
    1735.0      0.69774E-07
    1750.0      0.10431E-06
    1765.0      0.15410E-06
    1780.0      0.22500E-06
    1795.0      0.32496E-06
    1810.0      0.46415E-06
    1825.0      0.65548E-06
    1840.0      0.00000    
    1855.0      0.00000    
    1870.0      0.00000    
    1885.0      0.00000    
    1900.0      0.00000    
    1915.0      0.00000    
    1930.0      0.00000    
    1945.0      0.00000    
    1960.0      0.00000    
    1975.0      0.00000    
    1990.0      0.00000    
    2005.0      0.00000    
    2020.0      0.00000    
    2035.0      0.00000    
    2050.0      0.00000    
    2065.0      0.00000    
    2080.0      0.00000    
    2095.0      0.00000    
    2110.0      0.00000    
    2125.0      0.00000    
    2140.0      0.00000    
    2155.0      0.00000    
    2170.0      0.00000    
    2185.0      0.14013E-44
    2200.0      0.42039E-44
    2215.0      0.23822E-43
    2230.0      0.12612E-42
    2245.0      0.65581E-42
    2260.0      0.32973E-41
    2275.0      0.16053E-40
    2290.0      0.75365E-40
    2305.0      0.34385E-39
    2320.0      0.15165E-38
    2335.0      0.64807E-38
    2350.0      0.26869E-37
    2365.0      0.10790E-36
    2380.0      0.42322E-36
    2395.0      0.16113E-35
    2410.0      0.59645E-35
    2425.0      0.21498E-34
    2440.0      0.75348E-34
    2455.0      0.25812E-33
    2470.0      0.86206E-33
    2485.0      0.28070E-32
    2500.0      0.89454E-32
    2515.0      0.27811E-31
    2530.0      0.84509E-31
    2545.0      0.25116E-30
    2560.0      0.72958E-30
    2575.0      0.20813E-29
    2590.0      0.58173E-29
    2605.0      0.15918E-28
    2620.0      0.42762E-28
    2635.0      0.11257E-27
    2650.0      0.29070E-27
    2665.0      0.73774E-27
    2680.0      0.18374E-26
    2695.0      0.45002E-26
    2710.0      0.10862E-25
    2725.0      0.25761E-25
    2740.0      0.60093E-25
    2755.0      0.13796E-24
    2770.0      0.31163E-24
    2785.0      0.69346E-24
    2800.0      0.15211E-23
    2815.0      0.32860E-23
    2830.0      0.70033E-23
    2845.0      0.14732E-22
    2860.0      0.30551E-22
    2875.0      0.62527E-22
    2890.0      0.12636E-21
    2905.0      0.25200E-21
    2920.0      0.49654E-21
    2935.0      0.96765E-21
    2950.0      0.18626E-20
    2965.0      0.35426E-20
    2980.0      0.66642E-20
    2995.0      0.12392E-19
    3010.0      0.22783E-19
    3025.0      0.41496E-19
    3040.0      0.74762E-19
    3055.0      0.13327E-18
    3070.0      0.23543E-18
    3085.0      0.41183E-18
    3100.0      0.71334E-18
    3115.0      0.12239E-17
    3130.0      0.20810E-17
    3145.0      0.35054E-17
    3160.0      0.58526E-17
    3175.0      0.96988E-17
    3190.0      0.15934E-16
    3205.0      0.25952E-16
    3220.0      0.41943E-16
    3235.0      0.67248E-16
    3250.0      0.10696E-15
    3265.0      0.16881E-15
    3280.0      0.26456E-15
    3295.0      0.41146E-15
    3310.0      0.63523E-15
    3325.0      0.97463E-15
    3340.0      0.14853E-14
    3355.0      0.22479E-14
    3370.0      0.33791E-14
    3385.0      0.50473E-14
    3400.0      0.74896E-14
    3415.0      0.11042E-13
    3430.0      0.16186E-13
    3445.0      0.23587E-13
    3460.0      0.34166E-13
    3475.0      0.49196E-13
    3490.0      0.70472E-13
    3505.0      0.10039E-12
    3520.0      0.14220E-12
    3535.0      0.20033E-12
    3550.0      0.28080E-12
    3565.0      0.39153E-12
    3580.0      0.54306E-12
    3595.0      0.74966E-12
    3610.0      0.10304E-11
    3625.0      0.14093E-11
    3640.0      0.19183E-11
    3655.0      0.25992E-11
    3670.0      0.35062E-11
    3685.0      0.47083E-11
    3700.0      0.62944E-11
    3715.0      0.83792E-11
    3730.0      0.11109E-10
    3745.0      0.14667E-10
    3760.0      0.19282E-10
    3775.0      0.25257E-10
    3790.0      0.32963E-10
    3805.0      0.42852E-10
    3820.0      0.55494E-10
    3835.0      0.71596E-10
    3850.0      0.92042E-10
    3865.0      0.11789E-09
    3880.0      0.15046E-09
    3895.0      0.19137E-09
    3910.0      0.24266E-09
    3925.0      0.30664E-09
    3940.0      0.38621E-09
    3955.0      0.48483E-09
    3970.0      0.60686E-09
    3985.0      0.75722E-09
    4000.0      0.94185E-09
    4015.0      0.11679E-08
    4030.0      0.14442E-08
    4045.0      0.17805E-08
    4060.0      0.21888E-08
    4075.0      0.26831E-08
    4090.0      0.32805E-08
    4105.0      0.40008E-08
    4120.0      0.48661E-08
    4135.0      0.59026E-08
    4150.0      0.71411E-08
    4165.0      0.86181E-08
    4180.0      0.10374E-07
    4195.0      0.12457E-07
    4210.0      0.14920E-07
    4225.0      0.17832E-07
    4240.0      0.21262E-07
    4255.0      0.25292E-07
    4270.0      0.30018E-07
    4285.0      0.35546E-07
    4300.0      0.42011E-07
    4315.0      0.49543E-07
    4330.0      0.58297E-07
    4345.0      0.68455E-07
    4360.0      0.80217E-07
    4375.0      0.93818E-07
    4390.0      0.10950E-06
    4405.0      0.12755E-06
    4420.0      0.14828E-06
    4435.0      0.17208E-06
    4450.0      0.19935E-06
    4465.0      0.23049E-06
    4480.0      0.26602E-06
    4495.0      0.30646E-06
    4510.0      0.35247E-06
    4525.0      0.40469E-06
    4540.0      0.46383E-06
    4555.0      0.53072E-06
    4570.0      0.60624E-06
    4585.0      0.69145E-06
    4600.0      0.78733E-06
    4615.0      0.89510E-06
    4630.0      0.10160E-05
    4645.0      0.11515E-05
    4660.0      0.13033E-05
    4675.0      0.14729E-05
    4690.0      0.16621E-05
    4705.0      0.18729E-05
    4720.0      0.21073E-05
    4735.0      0.23679E-05
    4750.0      0.26570E-05
    4765.0      0.29773E-05
    4780.0      0.33315E-05
    4795.0      0.37231E-05
    4810.0      0.41555E-05
    4825.0      0.46322E-05
    4840.0      0.51568E-05
    4855.0      0.57336E-05
    4870.0      0.63671E-05
    4885.0      0.70627E-05
    4900.0      0.78250E-05
    4915.0      0.86592E-05
    4930.0      0.95712E-05
    4945.0      0.10567E-04
    4960.0      0.11653E-04
    4975.0      0.12837E-04
    4990.0      0.14126E-04
    5005.0      0.15527E-04
    5020.0      0.17048E-04
    5035.0      0.18701E-04
    5050.0      0.20494E-04
    5065.0      0.22437E-04
    5080.0      0.24538E-04
    5095.0      0.26809E-04
    5110.0      0.29262E-04
    5125.0      0.31908E-04
    5140.0      0.34761E-04
    5155.0      0.37833E-04
    5170.0      0.41137E-04
    5185.0      0.44688E-04
    5200.0      0.48502E-04
    5215.0      0.52596E-04
    5230.0      0.56983E-04
    5245.0      0.61683E-04
    5260.0      0.66713E-04
    5275.0      0.72091E-04
    5290.0      0.77845E-04
    5305.0      0.83992E-04
    5320.0      0.90547E-04
    5335.0      0.97537E-04
    5350.0      0.10498E-03
    5365.0      0.11290E-03
    5380.0      0.12134E-03
    5395.0      0.13030E-03
    5410.0      0.13982E-03
    5425.0      0.14992E-03
    5440.0      0.16063E-03
    5455.0      0.17199E-03
    5470.0      0.18403E-03
    5485.0      0.19678E-03
    5500.0      0.21025E-03
    5515.0      0.22450E-03
    5530.0      0.23955E-03
    5545.0      0.25545E-03
    5560.0      0.27222E-03
    5575.0      0.28991E-03
    5590.0      0.30855E-03
    5605.0      0.32817E-03
    5620.0      0.34882E-03
    5635.0      0.37055E-03
    5650.0      0.39340E-03
    5665.0      0.41741E-03
    5680.0      0.44261E-03
    5695.0      0.46906E-03
    5710.0      0.49679E-03
    5725.0      0.52587E-03
    5740.0      0.55635E-03
    5755.0      0.58827E-03
    5770.0      0.62167E-03
    5785.0      0.65660E-03
    5800.0      0.69312E-03
    5815.0      0.73127E-03
    5830.0      0.77115E-03
    5845.0      0.81277E-03
    5860.0      0.85620E-03
    5875.0      0.90147E-03
    5890.0      0.94867E-03
    5905.0      0.99783E-03
    5920.0      0.10491E-02
    5935.0      0.11025E-02
    5950.0      0.11580E-02
    5965.0      0.12158E-02
    5980.0      0.12758E-02
    5995.0      0.13381E-02
    6010.0      0.14030E-02
    6025.0      0.14703E-02
    6040.0      0.15401E-02
    6055.0      0.16125E-02
    6070.0      0.16876E-02
    6085.0      0.17655E-02
    6100.0      0.18461E-02
    6115.0      0.19297E-02
    6130.0      0.20162E-02
    6145.0      0.21057E-02
    6160.0      0.21982E-02
    6175.0      0.22939E-02
    6190.0      0.23928E-02
    6205.0      0.24951E-02
    6220.0      0.26007E-02
    6235.0      0.27098E-02
    6250.0      0.28223E-02
    6265.0      0.29384E-02
    6280.0      0.30581E-02
    6295.0      0.31816E-02
    6310.0      0.33089E-02
    6325.0      0.34399E-02
    6340.0      0.35750E-02
    6355.0      0.37142E-02
    6370.0      0.38578E-02
    6385.0      0.40056E-02
    6400.0      0.41577E-02
    6415.0      0.43140E-02
    6430.0      0.44748E-02
    6445.0      0.46397E-02
    6460.0      0.48091E-02
    6475.0      0.49831E-02
    6490.0      0.51617E-02
    6505.0      0.53451E-02
    6520.0      0.55333E-02
    6535.0      0.57263E-02
    6550.0      0.59244E-02
    6565.0      0.61276E-02
    6580.0      0.63358E-02
    6595.0      0.65492E-02
    6610.0      0.67678E-02
    6625.0      0.69917E-02
    6640.0      0.72209E-02
    6655.0      0.74559E-02
    6670.0      0.76964E-02
    6685.0      0.79426E-02
    6700.0      0.81943E-02
    6715.0      0.84517E-02
    6730.0      0.87149E-02
    6745.0      0.89839E-02
    6760.0      0.92589E-02
    6775.0      0.95399E-02
    6790.0      0.98269E-02
    6805.0      0.10120E-01
    6820.0      0.10419E-01
    6835.0      0.10725E-01
    6850.0      0.11036E-01
    6865.0      0.11354E-01
    6880.0      0.11679E-01
    6895.0      0.12009E-01
    6910.0      0.12347E-01
    6925.0      0.12690E-01
    6940.0      0.13041E-01
    6955.0      0.13398E-01
    6970.0      0.13761E-01
    6985.0      0.14132E-01
    7000.0      0.14510E-01
    7015.0      0.14894E-01
    7030.0      0.15285E-01
    7045.0      0.15684E-01
    7060.0      0.16089E-01
    7075.0      0.16501E-01
    7090.0      0.16920E-01
    7105.0      0.17347E-01
    7120.0      0.17780E-01
    7135.0      0.18221E-01
    7150.0      0.18669E-01
    7165.0      0.19125E-01
    7180.0      0.19587E-01
    7195.0      0.20057E-01
    7210.0      0.20534E-01
    7225.0      0.21019E-01
    7240.0      0.21511E-01
    7255.0      0.22011E-01
    7270.0      0.22518E-01
    7285.0      0.23033E-01
    7300.0      0.23555E-01
    7315.0      0.24084E-01
    7330.0      0.24622E-01
    7345.0      0.25168E-01
    7360.0      0.25721E-01
    7375.0      0.26281E-01
    7390.0      0.26850E-01
    7405.0      0.27426E-01
    7420.0      0.28009E-01
    7435.0      0.28601E-01
    7450.0      0.29200E-01
    7465.0      0.29807E-01
    7480.0      0.30422E-01
    7495.0      0.31044E-01
    7510.0      0.31676E-01
    7525.1      0.32316E-01
    7540.1      0.32963E-01
    7555.2      0.33619E-01
    7570.2      0.34282E-01
    7585.2      0.34953E-01
    7600.3      0.35633E-01
    7615.3      0.36319E-01
    7630.4      0.37014E-01
    7645.4      0.37717E-01
    7660.4      0.38427E-01
    7675.5      0.39145E-01
    7690.5      0.39872E-01
    7705.6      0.40606E-01
    7720.6      0.41349E-01
    7735.6      0.42099E-01
    7750.7      0.42857E-01
    7765.7      0.43622E-01
    7780.8      0.44396E-01
    7795.8      0.45177E-01
    7810.8      0.45966E-01
    7825.9      0.46763E-01
    7840.9      0.47567E-01
    7856.0      0.48380E-01
    7871.0      0.49200E-01
    7886.0      0.50027E-01
    7901.1      0.50863E-01
    7916.1      0.51705E-01
    7931.2      0.52556E-01
    7946.2      0.53415E-01
    7961.2      0.54281E-01
    7976.3      0.55155E-01
    7991.3      0.56036E-01
    8006.4      0.56925E-01
    8021.4      0.57821E-01
    8036.4      0.58725E-01
    8051.5      0.59635E-01
    8066.5      0.60554E-01
    8081.6      0.61480E-01
    8096.6      0.62414E-01
    8111.6      0.63354E-01
    8126.7      0.64302E-01
    8141.7      0.65257E-01
    8156.8      0.66220E-01
    8171.8      0.67189E-01
    8186.8      0.68165E-01
    8201.9      0.69150E-01
    8216.9      0.70141E-01
    8232.0      0.71139E-01
    8247.0      0.72143E-01
    8262.0      0.73155E-01
    8277.1      0.74174E-01
    8292.1      0.75200E-01
    8307.2      0.76232E-01
    8322.2      0.77271E-01
    8337.2      0.78318E-01
    8352.3      0.79371E-01
    8367.3      0.80431E-01
    8382.4      0.81497E-01
    8397.4      0.82570E-01
    8412.4      0.83650E-01
    8427.5      0.84736E-01
    8442.5      0.85828E-01
    8457.6      0.86927E-01
    8472.6      0.88032E-01
    8487.6      0.89144E-01
    8502.7      0.90262E-01
    8517.7      0.91386E-01
    8532.8      0.92516E-01
    8547.8      0.93652E-01
    8562.8      0.94794E-01
    8577.9      0.95942E-01
    8592.9      0.97096E-01
    8608.0      0.98257E-01
    8623.0      0.99424E-01
    8638.0      0.10060    
    8653.1      0.10177    
    8668.1      0.10296    
    8683.2      0.10415    
    8698.2      0.10534    
    8713.2      0.10654    
    8728.3      0.10775    
    8743.3      0.10896    
    8758.4      0.11018    
    8773.4      0.11140    
    8788.4      0.11263    
    8803.5      0.11386    
    8818.5      0.11510    
    8833.6      0.11634    
    8848.6      0.11759    
    8863.6      0.11884    
    8878.7      0.12010    
    8893.7      0.12137    
    8908.8      0.12263    
    8923.8      0.12391    
    8938.8      0.12518    
    8953.9      0.12647    
    8968.9      0.12775    
    8984.0      0.12904    
    8999.0      0.13034    
    9014.0      0.13164    
    9029.1      0.13295    
    9044.1      0.13426    
    9059.2      0.13557    
    9074.2      0.13689    
    9089.2      0.13821    
    9104.3      0.13954    
    9119.3      0.14087    
    9134.4      0.14220    
    9149.4      0.14354    
    9164.4      0.14489    
    9179.5      0.14623    
    9194.5      0.14758    
    9209.6      0.14894    
    9224.6      0.15030    
    9239.6      0.15166    
    9254.7      0.15302    
    9269.7      0.15439    
    9284.8      0.15576    
    9299.8      0.15714    
    9314.8      0.15852    
    9329.9      0.15990    
    9344.9      0.16129    
    9360.0      0.16268    
    9375.0      0.16407    
    9390.0      0.16546    
    9405.1      0.16686    
    9420.1      0.16826    
    9435.2      0.16967    
    9450.2      0.17107    
    9465.3      0.17248    
    9480.3      0.17390    
    9495.3      0.17531    
    9510.4      0.17673    
    9525.4      0.17815    
    9540.5      0.17958    
    9555.5      0.18100    
    9570.5      0.18243    
    9585.6      0.18387    
    9600.6      0.18530    
    9615.7      0.18674    
    9630.7      0.18817    
    9645.7      0.18962    
    9660.8      0.19106    
    9675.8      0.19250    
    9690.9      0.19395    
    9705.9      0.19540    
    9720.9      0.19685    
    9736.0      0.19830    
    9751.0      0.19976    
    9766.1      0.20122    
    9781.1      0.20268    
    9796.1      0.20414    
    9811.2      0.20560    
    9826.2      0.20706    
    9841.3      0.20853    
    9856.3      0.21000    
    9871.3      0.21146    
    9886.4      0.21293    
    9901.4      0.21440    
    9916.5      0.21588    
    9931.5      0.21735    
    9946.5      0.21883    
    9961.6      0.22030    
    9976.6      0.22178    
    9991.7      0.22326    
    10007.      0.22474    
    10022.      0.22622    
    10037.      0.22770    
    10052.      0.22919    
    10067.      0.23067    
    10082.      0.23216    
    10097.      0.23364    
    10112.      0.23513    
    10127.      0.23662    
    10142.      0.23811    
    10157.      0.23960    
    10172.      0.24109    
    10187.      0.24258    
    10202.      0.24407    
    10217.      0.24556    
    10232.      0.24705    
    10247.      0.24854    
    10262.      0.25004    
    10277.      0.25153    
    10292.      0.25302    
    10307.      0.25452    
    10323.      0.25601    
    10338.      0.25750    
    10353.      0.25900    
    10368.      0.26049    
    10383.      0.26199    
    10398.      0.26348    
    10413.      0.26498    
    10428.      0.26647    
    10443.      0.26797    
    10458.      0.26946    
    10473.      0.27096    
    10488.      0.27245    
    10503.      0.27395    
    10518.      0.27544    
    10533.      0.27693    
    10548.      0.27843    
    10563.      0.27992    
    10578.      0.28141    
    10593.      0.28291    
    10608.      0.28440    
    10623.      0.28589    
    10638.      0.28738    
    10653.      0.28887    
    10668.      0.29036    
    10683.      0.29185    
